# nu(cm-1)        I
     525.0  0.69269
     525.5  0.69263
     526.0  0.69256
     526.5  0.69249
     527.0  0.69243
     527.5  0.69236
     528.0  0.69230
     528.5  0.69223
     529.0  0.69217
     529.5  0.69210
     530.0  0.69204
     530.5  0.69198
     531.0  0.69192
     531.5  0.69185
     532.0  0.69179
     532.5  0.69173
     533.0  0.69167
     533.5  0.69161
     534.0  0.69155
     534.5  0.69149
     535.0  0.69143
     535.5  0.69137
     536.0  0.69131
     536.5  0.69125
     537.0  0.69120
     537.5  0.69114
     538.0  0.69108
     538.5  0.69103
     539.0  0.69097
     539.5  0.69092
     540.0  0.69087
     540.5  0.69081
     541.0  0.69076
     541.5  0.69071
     542.0  0.69066
     542.5  0.69061
     543.0  0.69056
     543.5  0.69051
     544.0  0.69046
     544.5  0.69042
     545.0  0.69037
     545.5  0.69033
     546.0  0.69028
     546.5  0.69024
     547.0  0.69020
     547.5  0.69016
     548.0  0.69012
     548.5  0.69008
     549.0  0.69004
     549.5  0.69000
     550.0  0.68997
     550.5  0.68993
     551.0  0.68990
     551.5  0.68987
     552.0  0.68984
     552.5  0.68981
     553.0  0.68978
     553.5  0.68976
     554.0  0.68973
     554.5  0.68971
     555.0  0.68969
     555.5  0.68967
     556.0  0.68965
     556.5  0.68964
     557.0  0.68963
     557.5  0.68961
     558.0  0.68961
     558.5  0.68960
     559.0  0.68959
     559.5  0.68959
     560.0  0.68959
     560.5  0.68959
     561.0  0.68960
     561.5  0.68961
     562.0  0.68962
     562.5  0.68963
     563.0  0.68965
     563.5  0.68967
     564.0  0.68969
     564.5  0.68972
     565.0  0.68975
     565.5  0.68979
     566.0  0.68983
     566.5  0.68987
     567.0  0.68992
     567.5  0.68997
     568.0  0.69003
     568.5  0.69009
     569.0  0.69016
     569.5  0.69024
     570.0  0.69032
     570.5  0.69040
     571.0  0.69049
     571.5  0.69059
     572.0  0.69070
     572.5  0.69082
     573.0  0.69094
     573.5  0.69107
     574.0  0.69121
     574.5  0.69136
     575.0  0.69152
     575.5  0.69169
     576.0  0.69187
     576.5  0.69207
     577.0  0.69227
     577.5  0.69249
     578.0  0.69273
     578.5  0.69298
     579.0  0.69324
     579.5  0.69353
     580.0  0.69383
     580.5  0.69416
     581.0  0.69450
     581.5  0.69488
     582.0  0.69528
     582.5  0.69571
     583.0  0.69617
     583.5  0.69667
     584.0  0.69722
     584.5  0.69781
     585.0  0.69846
     585.5  0.69916
     586.0  0.69994
     586.5  0.70080
     587.0  0.70175
     587.5  0.70281
     588.0  0.70400
     588.5  0.70532
     589.0  0.70681
     589.5  0.70848
     590.0  0.71036
     590.5  0.71248
     591.0  0.71487
     591.5  0.71757
     592.0  0.72061
     592.5  0.72403
     593.0  0.72787
     593.5  0.73218
     594.0  0.73698
     594.5  0.74233
     595.0  0.74826
     595.5  0.75481
     596.0  0.76202
     596.5  0.76990
     597.0  0.77849
     597.5  0.78778
     598.0  0.79780
     598.5  0.80852
     599.0  0.81993
     599.5  0.83199
     600.0  0.84465
     600.5  0.85784
     601.0  0.87146
     601.5  0.88541
     602.0  0.89954
     602.5  0.91368
     603.0  0.92763
     603.5  0.94116
     604.0  0.95401
     604.5  0.96590
     605.0  0.97651
     605.5  0.98555
     606.0  0.99273
     606.5  0.99779
     607.0  1.00056
     607.5  1.00093
     608.0  0.99888
     608.5  0.99450
     609.0  0.98794
     609.5  0.97943
     610.0  0.96926
     610.5  0.95773
     611.0  0.94513
     611.5  0.93178
     612.0  0.91792
     612.5  0.90382
     613.0  0.88967
     613.5  0.87566
     614.0  0.86194
     614.5  0.84864
     615.0  0.83584
     615.5  0.82364
     616.0  0.81208
     616.5  0.80122
     617.0  0.79108
     617.5  0.78168
     618.0  0.77301
     618.5  0.76508
     619.0  0.75786
     619.5  0.75134
     620.0  0.74548
     620.5  0.74027
     621.0  0.73566
     621.5  0.73162
     622.0  0.72811
     622.5  0.72510
     623.0  0.72256
     623.5  0.72045
     624.0  0.71875
     624.5  0.71742
     625.0  0.71645
     625.5  0.71580
     626.0  0.71546
     626.5  0.71541
     627.0  0.71564
     627.5  0.71613
     628.0  0.71686
     628.5  0.71783
     629.0  0.71903
     629.5  0.72044
     630.0  0.72205
     630.5  0.72385
     631.0  0.72583
     631.5  0.72797
     632.0  0.73025
     632.5  0.73266
     633.0  0.73517
     633.5  0.73775
     634.0  0.74039
     634.5  0.74303
     635.0  0.74565
     635.5  0.74820
     636.0  0.75064
     636.5  0.75291
     637.0  0.75496
     637.5  0.75673
     638.0  0.75818
     638.5  0.75925
     639.0  0.75991
     639.5  0.76011
     640.0  0.75986
     640.5  0.75914
     641.0  0.75796
     641.5  0.75636
     642.0  0.75436
     642.5  0.75202
     643.0  0.74938
     643.5  0.74649
     644.0  0.74342
     644.5  0.74020
     645.0  0.73689
     645.5  0.73353
     646.0  0.73015
     646.5  0.72680
     647.0  0.72348
     647.5  0.72024
     648.0  0.71709
     648.5  0.71405
     649.0  0.71112
     649.5  0.70832
     650.0  0.70566
     650.5  0.70314
     651.0  0.70076
     651.5  0.69852
     652.0  0.69643
     652.5  0.69448
     653.0  0.69267
     653.5  0.69098
     654.0  0.68943
     654.5  0.68799
     655.0  0.68667
     655.5  0.68546
     656.0  0.68435
     656.5  0.68333
     657.0  0.68239
     657.5  0.68153
     658.0  0.68074
     658.5  0.68002
     659.0  0.67936
     659.5  0.67874
     660.0  0.67818
     660.5  0.67766
     661.0  0.67717
     661.5  0.67672
     662.0  0.67630
     662.5  0.67590
     663.0  0.67553
     663.5  0.67518
     664.0  0.67485
     664.5  0.67453
     665.0  0.67423
     665.5  0.67394
     666.0  0.67367
     666.5  0.67340
     667.0  0.67315
     667.5  0.67290
     668.0  0.67266
     668.5  0.67243
     669.0  0.67220
     669.5  0.67198
     670.0  0.67177
     670.5  0.67156
     671.0  0.67136
     671.5  0.67116
     672.0  0.67096
     672.5  0.67077
     673.0  0.67059
     673.5  0.67040
     674.0  0.67022
     674.5  0.67005
     675.0  0.66988
     675.5  0.66971
     676.0  0.66954
     676.5  0.66937
     677.0  0.66921
     677.5  0.66905
     678.0  0.66890
     678.5  0.66874
     679.0  0.66859
     679.5  0.66844
     680.0  0.66829
     680.5  0.66814
     681.0  0.66800
     681.5  0.66785
     682.0  0.66771
     682.5  0.66757
     683.0  0.66743
     683.5  0.66729
     684.0  0.66716
     684.5  0.66702
     685.0  0.66689
     685.5  0.66676
     686.0  0.66663
     686.5  0.66650
     687.0  0.66637
     687.5  0.66625
     688.0  0.66612
     688.5  0.66599
     689.0  0.66587
     689.5  0.66575
     690.0  0.66563
     690.5  0.66550
     691.0  0.66538
     691.5  0.66526
     692.0  0.66515
     692.5  0.66503
     693.0  0.66491
     693.5  0.66479
     694.0  0.66468
     694.5  0.66456
     695.0  0.66445
     695.5  0.66434
     696.0  0.66422
     696.5  0.66411
     697.0  0.66400
     697.5  0.66389
     698.0  0.66378
     698.5  0.66367
     699.0  0.66356
     699.5  0.66345
     700.0  0.66334
     700.5  0.66323
     701.0  0.66312
     701.5  0.66302
     702.0  0.66291
     702.5  0.66280
     703.0  0.66270
     703.5  0.66259
     704.0  0.66249
     704.5  0.66238
     705.0  0.66228
     705.5  0.66217
     706.0  0.66207
     706.5  0.66197
     707.0  0.66186
     707.5  0.66176
     708.0  0.66166
     708.5  0.66156
     709.0  0.66146
     709.5  0.66135
     710.0  0.66125
     710.5  0.66115
     711.0  0.66105
     711.5  0.66095
     712.0  0.66085
     712.5  0.66075
     713.0  0.66065
     713.5  0.66055
     714.0  0.66045
     714.5  0.66036
     715.0  0.66026
     715.5  0.66016
     716.0  0.66006
     716.5  0.65996
     717.0  0.65987
     717.5  0.65977
     718.0  0.65967
     718.5  0.65957
     719.0  0.65948
     719.5  0.65938
     720.0  0.65928
     720.5  0.65919
     721.0  0.65909
     721.5  0.65900
     722.0  0.65890
     722.5  0.65881
     723.0  0.65871
     723.5  0.65861
     724.0  0.65852
     724.5  0.65842
     725.0  0.65833
     725.5  0.65824
     726.0  0.65814
     726.5  0.65805
     727.0  0.65795
     727.5  0.65786
     728.0  0.65776
     728.5  0.65767
     729.0  0.65758
     729.5  0.65748
     730.0  0.65739
